File: projects/solarcell/xrd/XRD-new method/XRD/input data/sample4.csv
Angle,intensity
27.9833,3.01504
28.1115,3.01253
28.2398,3.01754
28.3681,3.0213
28.4964,3.01754
28.6248,3.0213
28.7532,3.01754
28.8816,3.0188
29.0101,3.01754
29.1386,3.01003
29.2672,3.0188
29.3958,3.0213
29.5244,3.03133
29.6531,3.01754
29.7818,3.02005
29.9104,3.01754
30.0391,3.02005
30.1678,3.02256
30.2965,3.02381
30.4252,3.02632
30.5538,3.02506
30.6825,3.02005
30.811,3.01378
30.9396,3.02506
31.0681,3.0213
31.1966,3.02005
31.325,3.02256
31.4533,3.06266
31.5816,3.10777
31.7098,3.2406
31.8379,3.33835
31.9659,3.52757
32.0938,3.71053
32.2216,3.56892
32.3493,3.18672
32.4769,3.05138
32.6044,3.02256
32.7317,3.02005
32.8589,3.01253
32.986,3.0213
33.1129,3.0188
33.2397,3.02632
33.3663,3.01253
33.4928,3.02757
33.6191,3.02005
33.7452,3.02882
33.8711,3.01378
33.9969,3.02005
34.1226,3.02256
34.2482,3.02256
34.3739,3.03885
34.4996,3.04386
34.6255,3.19549
34.7516,3.29323
34.8779,3.35464
35.0045,3.18296
35.1315,3.11779
35.2588,3.07018
35.3867,3.03258
35.5151,3.0213
35.644,3.02005
35.7736,3.03509
35.9039,3.05388
36.0349,3.09774
36.1665,3.21178
36.2986,3.37093
36.4311,3.5401
36.5638,3.68045
36.6967,4
36.8295,3.79449
36.9622,3.24937
37.0947,3.0589
37.2268,3.02005
37.3584,3.02381
37.4893,3.0213
37.6195,3.01504
37.7487,3.0213
37.877,3.02381
38.0042,3.01629
38.1302,3.01754
38.2553,3.01128
38.3796,3.02005
38.503,3.01378
38.6258,3.01003
38.7481,3.00752
38.87,3.02256
38.9915,3.00877
39.1128,3.01378
39.234,3.0213
39.3553,3.01504
39.4766,3.01629
39.5982,3.0188
39.7201,3.00877
39.8425,3.01253
39.9654,3.00877
40.0888,3.00627
40.2128,3.01629
40.3373,3.01754
40.4622,3.01253
40.5876,3.01003
40.7134,3.01128
40.8397,3.01629
40.9663,3.01378
41.0933,3.02005
41.2207,3.01253
41.3484,3.01504
41.4764,3.02256
41.6047,3.00501
41.7332,3.01378
41.862,3.01003
41.991,3.00627
42.1202,3.01378
42.2496,3.01378
42.3792,3.01378
42.5089,3.01629
42.6387,3.01754
42.7686,3.00752
42.8986,3.00877
43.0286,3.00627
43.1587,3.01253
43.2887,3.01754
43.4188,3.01504
43.5488,3.01754
43.6788,3.01504
43.8088,3.01378
43.9387,3.00877
44.0685,3.00752
44.1984,3.0188
44.3281,3.01629
44.4578,3.01253
44.5875,3.01253
44.7171,3.00501
44.8467,3.01378
44.9762,3.00627
45.1057,3.01128
45.2351,3.00752
45.3645,3.00877
45.4938,3.01504
45.6231,3.00627
45.7523,3.00251
45.8815,3.01253
46.0106,3.00877
46.1396,3.01003
46.2686,3.01003
46.3976,3.00501
46.5265,3.01003
46.6553,3.00501
46.7841,3.01629
46.9128,3.02005
47.0415,3.01253
47.1701,3.01378
47.2987,3.02256
47.4272,3.03008
47.5556,3.05388
47.684,3.08271
47.8123,3.06767
47.9406,3.099
48.0688,3.11278
48.1969,3.14662
48.325,3.10276
48.453,3.06767
48.581,3.02256
48.7089,3.01003
48.8367,3.01003
48.9645,3.01504
49.0922,3.00877
49.22,3.01504
49.3476,3.00752
49.4753,3.01128
49.6029,3.01128
49.7305,3.01629
49.8581,3.00752
49.9857,3.01003
50.1133,3.01253
50.241,3.01128
50.3686,3.00752
50.4962,3.00877
50.6239,3.00877
50.7516,3.01504
50.8794,3.00877
51.0072,3.00877
51.135,3.0188
51.2629,3.01003
51.3909,3.00501
51.5189,3.00627
51.647,3.01128
51.7752,3.01754
51.9034,3.00376
52.0318,3.00501
52.1602,3.00752
52.2888,3.01003
52.4174,3.01128
52.5462,3.00877
52.6751,3.01128
52.8041,3.01003
52.9333,3.01128
53.0626,3.01378
53.192,3.00627
53.3216,3.00501
53.4513,3.00376
53.5811,3.00627
53.711,3.00627
53.841,3.01128
53.971,3.01128
54.101,3.00627
54.231,3.01003
54.361,3.00877
54.491,3.01378
54.6209,3.00627
54.7506,3.01128
54.8803,3.01504
55.0098,3.01128
55.1392,3.01128
55.2684,3.00877
55.3974,3.01629
55.5262,3.01003
55.6547,3.01378
55.7829,3.00376
55.9109,3.01128
56.0385,3.02005
56.1658,3.01754
56.2928,3.01754
56.4194,3.02632
56.5457,3.05514
56.6717,3.13033
56.7975,3.11905
56.923,3.18421
57.0484,3.22055
57.1735,3.21554
57.2986,3.32832
57.4235,3.35088
57.5483,3.21303
57.673,3.11654
57.7977,3.02757
57.9225,3.02506
58.0473,3.01253
58.1722,3.01504
58.2973,3.01504
58.4227,3.01253
58.5483,3.01003
58.6742,3.01003
58.8005,3.00501
58.9273,3.00627
59.0545,3.01504
59.1822,3.01003
59.3104,3.00877
59.4389,3.01128
59.5677,3.01253
59.6967,3.00627
59.8258,3.00376
59.9549,3.01253
60.084,3.00752
60.2129,3.01128
60.3416,3.01128
60.47,3.01003
60.5981,3.01253
60.7259,3.01128
60.8536,3.00501
60.9812,3.00752
61.1088,3.00752
61.2366,3.01003
61.3645,3.00627
61.4927,3.01253
61.6213,3.00627
61.7504,3.01003
61.8801,3.00376
62.0103,3.00627
62.1411,3.01003
62.2723,3.01003
62.404,3.01003
62.536,3.01003
62.6684,3.01754
62.801,3.03258
62.9338,3.02882
63.0668,3.0589
63.1998,3.06266
63.333,3.09774
63.466,3.11278
63.5991,3.12281
63.732,3.13409
63.8647,3.17669
63.9972,3.11028
64.1294,3.05263
64.2612,3.02757
64.3927,3.00877
64.5237,3.01754
64.6542,3.02256
64.7842,3.01754
64.9137,3.00752
65.0428,3.00877
65.1714,3.01253
65.2996,3.00752
65.4273,3.00627
65.5547,3.01003
65.6817,3.00877
65.8083,3.00501
65.9345,3.01128
66.0289,3.00752