File: projects/solarcell/xrd/XRD-new method/XRD/input data/sample3.csv
Angle,intensity
27.9833,2.1709
28.1115,2.16243
28.2398,2.1709
28.3681,2.19068
28.4964,2.16525
28.6248,2.16808
28.7532,2.14689
28.8816,2.17514
29.0101,2.14548
29.1386,2.17514
29.2672,2.17655
29.3958,2.15395
29.5244,2.17655
29.6531,2.1596
29.7818,2.17797
29.9104,2.13418
30.0391,2.14689
30.1678,2.14689
30.2965,2.13277
30.4252,2.1596
30.5538,2.16102
30.6825,2.17655
30.811,2.15254
30.9396,2.14266
31.0681,2.14548
31.1966,2.14831
31.325,2.13701
31.4533,2.14407
31.5816,2.16808
31.7098,2.15395
31.8379,2.19915
31.9659,2.40819
32.0938,2.96469
32.2216,2.36017
32.3493,2.16667
32.4769,2.17514
32.6044,2.14266
32.7317,2.15113
32.8589,2.13277
32.986,2.13418
33.1129,2.14689
33.2397,2.13842
33.3663,2.15537
33.4928,2.14124
33.6191,2.12525
33.7452,2.14266
33.8711,2.13559
33.9969,2.13277
34.1226,2.13418
34.2482,2.12853
34.3739,2.11441
34.4996,2.10593
34.6255,2.1596
34.7516,2.38701
34.8779,2.34605
35.0045,2.14266
35.1315,2.11723
35.2588,2.11158
35.3867,2.12006
35.5151,2.12571
35.644,2.11299
35.7736,2.09605
35.9039,2.11582
36.0349,2.0904
36.1665,2.10876
36.2986,2.10311
36.4311,2.18079
36.5638,2.50989
36.6967,2.81356
36.8295,2.35734
36.9622,2.13842
37.0947,2.10028
37.2268,2.12994
37.3584,2.09463
37.4893,2.10452
37.6195,2.09463
37.7487,2.11158
37.877,2.10311
38.0042,2.11017
38.1302,2.11723
38.2553,2.09605
38.3796,2.09746
38.503,2.09746
38.6258,2.11441
38.7481,2.08898
38.87,2.10734
38.9915,2.13136
39.1128,2.10169
39.234,2.08333
39.3553,2.08051
39.4766,2.08898
39.5982,2.10311
39.7201,2.08051
39.8425,2.09605
39.9654,2.09887
40.0888,2.09605
40.2128,2.07627
40.3373,2.10593
40.4622,2.10593
40.5876,2.08616
40.7134,2.08051
40.8397,2.09322
40.9663,2.10028
41.0933,2.08616
41.2207,2.08616
41.3484,2.09887
41.4764,2.11864
41.6047,2.10169
41.7332,2.10169
41.862,2.08898
41.991,2.07768
42.1202,2.09746
42.2496,2.08192
42.3792,2.09605
42.5089,2.07345
42.6387,2.09887
42.7686,2.10169
42.8986,2.0791
43.0286,2.09463
43.1587,2.07203
43.2887,2.10169
43.4188,2.08192
43.5488,2.09463
43.6788,2.0904
43.8088,2.08475
43.9387,2.09746
44.0685,2.07768
44.1984,2.09322
44.3281,2.08475
44.4578,2.06638
44.5875,2.09322
44.7171,2.07345
44.8467,2.09463
44.9762,2.07345
45.1057,2.10311
45.2351,2.09181
45.3645,2.0791
45.4938,2.0904
45.6231,2.09746
45.7523,2.08475
45.8815,2.07486
46.0106,2.11017
46.1396,2.05791
46.2686,2.08051
46.3976,2.09181
46.5265,2.08475
46.6553,2.0678
46.7841,2.08475
46.9128,2.08333
47.0415,2.09887
47.1701,2.07486
47.2987,2.08757
47.4272,2.08192
47.5556,2.07486
47.684,2.08475
47.8123,2.07627
47.9406,2.09463
48.0688,2.14266
48.1969,2.19209
48.325,2.14124
48.453,2.08333
48.581,2.10028
48.7089,2.08475
48.8367,2.08051
48.9645,2.06638
49.0922,2.08051
49.22,2.09322
49.3476,2.08898
49.4753,2.0791
49.6029,2.07486
49.7305,2.07345
49.8581,2.06215
49.9857,2.08616
50.1133,2.07345
50.241,2.07062
50.3686,2.0904
50.4962,2.06356
50.6239,2.0678
50.7516,2.06638
50.8794,2.06497
51.0072,2.06215
51.135,2.07768
51.2629,2.07768
51.3909,2.07627
51.5189,2.09605
51.647,2.08051
51.7752,2.07345
51.9034,2.06497
52.0318,2.06921
52.1602,2.06497
52.2888,2.05791
52.4174,2.06921
52.5462,2.06215
52.6751,2.08333
52.8041,2.07062
52.9333,2.06497
53.0626,2.06921
53.192,2.07062
53.3216,2.08475
53.4513,2.05367
53.5811,2.07627
53.711,2.08192
53.841,2.06638
53.971,2.07345
54.101,2.0678
54.231,2.09463
54.361,2.0791
54.491,2.08333
54.6209,2.06073
54.7506,2.07768
54.8803,2.05791
55.0098,2.06073
55.1392,2.0678
55.2684,2.06497
55.3974,2.06921
55.5262,2.06356
55.6547,2.06215
55.7829,2.0678
55.9109,2.05791
56.0385,2.05791
56.1658,2.07486
56.2928,2.07062
56.4194,2.06215
56.5457,2.08757
56.6717,2.06638
56.7975,2.08616
56.923,2.15113
57.0484,2.30791
57.1735,2.25282
57.2986,2.14972
57.4235,2.07627
57.5483,2.06497
57.673,2.06073
57.7977,2.06356
57.9225,2.06356
58.0473,2.0565
58.1722,2.07768
58.2973,2.07345
58.4227,2.07062
58.5483,2.05508
58.6742,2.0565
58.8005,2.06497
58.9273,2.07345
59.0545,2.0678
59.1822,2.06356
59.3104,2.08051
59.4389,2.06638
59.5677,2.08051
59.6967,2.05932
59.8258,2.06073
59.9549,2.10169
60.084,2.06497
60.2129,2.07345
60.3416,2.05932
60.47,2.07345
60.5981,2.08616
60.7259,2.04802
60.8536,2.07062
60.9812,2.06497
61.1088,2.07768
61.2366,2.07345
61.3645,2.06497
61.4927,2.07062
61.6213,2.07486
61.7504,2.06921
61.8801,2.05932
62.0103,2.07768
62.1411,2.07345
62.2723,2.05226
62.404,2.0565
62.536,2.07203
62.6684,2.0565
62.801,2.07203
62.9338,2.06356
63.0668,2.06356
63.1998,2.05508
63.333,2.06073
63.466,2.0678
63.5991,2.11158
63.732,2.14831
63.8647,2.14548
63.9972,2.13277
64.1294,2.09322
64.2612,2.05367
64.3927,2.06356
64.5237,2.05226
64.6542,2.06073
64.7842,2.06638
64.9137,2.05508
65.0428,2.0791
65.1714,2.04944
65.2996,2.06356
65.4273,2.0565
65.5547,2.06356
65.6817,2.06073
65.8083,2.0339
65.9345,2.05508
66.0289,2.04802