File: projects/solarcell/xrd/XRD-new method/XRD/input data/sample5.csv
Angle,intensity
27.9833,4.00856
28.1115,4.00628
28.2398,4.00856
28.3681,4.01199
28.4964,4.00799
28.6248,4.0097
28.7532,4.00799
28.8816,4.004
29.0101,4.0097
29.1386,4.00514
29.2672,4.00685
29.3958,4.00571
29.5244,4.0097
29.6531,4.00685
29.7818,4.01084
29.9104,4.01142
30.0391,4.00685
30.1678,4.01084
30.2965,4.00571
30.4252,4.00571
30.5538,4.004
30.6825,4.00685
30.811,4.01027
30.9396,4.00571
31.0681,4.00856
31.1966,4.00514
31.325,4.01313
31.4533,4.01256
31.5816,4.01142
31.7098,4.01084
31.8379,4.01598
31.9659,4.11701
32.0938,4.83276
32.2216,4.47717
32.3493,4.07249
32.4769,4.01712
32.6044,4.01484
32.7317,4.01427
32.8589,4.01142
32.986,4.01256
33.1129,4.00742
33.2397,4.00799
33.3663,4.00742
33.4928,4.00799
33.6191,4.00799
33.7452,4.00799
33.8711,4.00742
33.9969,4.00685
34.1226,4.00457
34.2482,4.01142
34.3739,4.00628
34.4996,4.00628
34.6255,4.03082
34.7516,4.17751
34.8779,4.58048
35.0045,4.1113
35.1315,4.01199
35.2588,4.00685
35.3867,4.00856
35.5151,4.00514
35.644,4.00856
35.7736,4.01142
35.9039,4.00685
36.0349,4.00856
36.1665,4.00799
36.2986,4.01142
36.4311,4.02968
36.5638,4.14612
36.6967,4.67751
36.8295,4.55422
36.9622,4.0782
37.0947,4.02226
37.2268,4.00913
37.3584,4.00685
37.4893,4.00685
37.6195,4.0097
37.7487,4.00742
37.877,4.00514
38.0042,4.00628
38.1302,4.00457
38.2553,4.00285
38.3796,4.00342
38.503,4.00285
38.6258,4.00685
38.7481,4.00571
38.87,4.00514
38.9915,4.00856
39.1128,4.00571
39.234,4.00742
39.3553,4.00228
39.4766,4.00571
39.5982,4.00571
39.7201,4.00342
39.8425,4.00342
39.9654,4.00457
40.0888,4.004
40.2128,4.00799
40.3373,4.00628
40.4622,4.00742
40.5876,4.00685
40.7134,4.00685
40.8397,4.004
40.9663,4.00628
41.0933,4.00342
41.2207,4.00913
41.3484,4.00342
41.4764,4.004
41.6047,4.00856
41.7332,4.00228
41.862,4.00628
41.991,4.004
42.1202,4.00628
42.2496,4.00742
42.3792,4.00342
42.5089,4.00685
42.6387,4.00685
42.7686,4.00799
42.8986,4.00457
43.0286,4.00742
43.1587,4.00685
43.2887,4.00685
43.4188,4.00628
43.5488,4.00685
43.6788,4.00514
43.8088,4.00685
43.9387,4.00571
44.0685,4.00571
44.1984,4.00285
44.3281,4.00514
44.4578,4.00457
44.5875,4.00514
44.7171,4.00285
44.8467,4.00628
44.9762,4.004
45.1057,4.00457
45.2351,4.00514
45.3645,4.00285
45.4938,4.00342
45.6231,4.00571
45.7523,4.00571
45.8815,4.00571
46.0106,4.00342
46.1396,4.00228
46.2686,4.00628
46.3976,4.00342
46.5265,4.00228
46.6553,4.00571
46.7841,4.00342
46.9128,4.00342
47.0415,4.00057
47.1701,4.00571
47.2987,4.004
47.4272,4.00685
47.5556,4.00514
47.684,4.00571
47.8123,4.00856
47.9406,4.02112
48.0688,4.07249
48.1969,4.12728
48.325,4.06963
48.453,4.01998
48.581,4.00514
48.7089,4.00628
48.8367,4.00799
48.9645,4.00228
49.0922,4.00457
49.22,4.00571
49.3476,4.00742
49.4753,4.004
49.6029,4.00571
49.7305,4.00342
49.8581,4.00628
49.9857,4.00457
50.1133,4.00457
50.241,4.00342
50.3686,4.00114
50.4962,4.00342
50.6239,4.00285
50.7516,4.004
50.8794,4.00285
51.0072,4.00514
51.135,4.00228
51.2629,4.004
51.3909,4.00628
51.5189,4.00342
51.647,4.00457
51.7752,4.00285
51.9034,4.00342
52.0318,4.00571
52.1602,4.00285
52.2888,4.004
52.4174,4.00457
52.5462,4.00342
52.6751,4.00228
52.8041,4.00342
52.9333,4.00514
53.0626,4.00742
53.192,4.00228
53.3216,4.00114
53.4513,4.00571
53.5811,4.00228
53.711,4.004
53.841,4.00514
53.971,4.00457
54.101,4.00342
54.231,4.00171
54.361,4.00514
54.491,4.00285
54.6209,4.00285
54.7506,4.00514
54.8803,4.00457
55.0098,4.004
55.1392,4.00171
55.2684,4.00285
55.3974,4.00685
55.5262,4.00285
55.6547,4.00228
55.7829,4.00514
55.9109,4.00457
56.0385,4.00057
56.1658,4.00342
56.2928,4.00342
56.4194,4.00228
56.5457,4.00514
56.6717,4.00457
56.7975,4.00457
56.923,4.00913
57.0484,4.01655
57.1735,4.03824
57.2986,4.11416
57.4235,4.08961
57.5483,4.05479
57.673,4.03311
57.7977,4.00913
57.9225,4.00342
58.0473,4.00685
58.1722,4.004
58.2973,4.004
58.4227,4.004
58.5483,4.00571
58.6742,4.004
58.8005,4.00628
58.9273,4.00457
59.0545,4.00285
59.1822,4.00285
59.3104,4.00628
59.4389,4.00342
59.5677,4.00342
59.6967,4.00342
59.8258,4.00228
59.9549,4.00285
60.084,4.00514
60.2129,4.00571
60.3416,4.00457
60.47,4.00342
60.5981,4.00571
60.7259,4.00457
60.8536,4.00285
60.9812,4.00457
61.1088,4.00342
61.2366,4.00742
61.3645,4.00057
61.4927,4.00628
61.6213,4.00228
61.7504,4.00342
61.8801,4.00285
62.0103,4.00457
62.1411,4.00114
62.2723,4.00342
62.404,4.00342
62.536,4.00628
62.6684,4.00285
62.801,4.004
62.9338,4.00228
63.0668,4.00685
63.1998,4.00457
63.333,4.0097
63.466,4.01826
63.5991,4.03196
63.732,4.15411
63.8647,4.10331
63.9972,4.03425
64.1294,4.01655
64.2612,4.00799
64.3927,4.004
64.5237,4.00742
64.6542,4.00457
64.7842,4.00514
64.9137,4.00342
65.0428,4.004
65.1714,4.00628
65.2996,4.00228
65.4273,4.004
65.5547,4.00114
65.6817,4.00514
65.8083,4.00228
65.9345,4.004
66.0289,4.00228