File: projects/solarcell/xrd/XRD-new method/XRD/input data/sample1.csv
Angle,Intensity 1
27.9833,0.0256849
28.1115,0.008561644
28.2398,0.0376712
28.3681,0.0205479
28.4964,0.0291096
28.6248,0.0205479
28.7532,0.0291096
28.8816,0.0291096
29.0101,0.0188356
29.1386,0.0119863
29.2672,0.0205479
29.3958,0.0171233
29.5244,0.0205479
29.6531,0.0239726
29.7818,0.0222603
29.9104,0.0222603
30.0391,0.0205479
30.1678,0.0188356
30.2965,0.0205479
30.4252,0.0222603
30.5538,0.0222603
30.6825,0.0205479
30.811,0.0239726
30.9396,0.0308219
31.0681,0.0325342
31.1966,0.0342466
31.325,0.0222603
31.4533,0.0359589
31.5816,0.0308219
31.7098,0.101027
31.8379,0.244863
31.9659,0.261986
32.0938,0.434932
32.2216,0.592466
32.3493,0.311644
32.4769,0.114726
32.6044,0.0359589
32.7317,0.0171233
32.8589,0.0291096
32.986,0.0256849
33.1129,0.010274
33.2397,0.0205479
33.3663,0.0188356
33.4928,0.0256849
33.6191,0.0308219
33.7452,0.0222603
33.8711,0.0291096
33.9969,0.0291096
34.1226,0.0342466
34.2482,0.0308219
34.3739,0.0719178
34.4996,0.128425
34.6255,0.15411
34.7516,0.335616
34.8779,0.419521
35.0045,0.349315
35.1315,0.118151
35.2588,0.0445205
35.3867,0.0205479
35.5151,0.0291096
35.644,0.0205479
35.7736,0.0256849
35.9039,0.0239726
36.0349,0.0359589
36.1665,0.113014
36.2986,0.219178
36.4311,0.369863
36.5638,0.40411
36.6967,0.534247
36.8295,0.931507
36.9622,0.638699
37.0947,0.224315
37.2268,0.0496575
37.3584,0.0222603
37.4893,0.0325342
37.6195,0.0222603
37.7487,0.0256849
37.877,0.0308219
38.0042,0.010274
38.1302,0.0205479
38.2553,0.0205479
38.3796,0.015411
38.503,0.0222603
38.6258,0.015411
38.7481,0.0256849
38.87,0.0342466
38.9915,0.0205479
39.1128,0.0171233
39.234,0.0171233
39.3553,0.015411
39.4766,0.0188356
39.5982,0.0222603
39.7201,0.015411
39.8425,0.0188356
39.9654,0.008561644
40.0888,0.015411
40.2128,0.0205479
40.3373,0.0171233
40.4622,0.015411
40.5876,0.008561644
40.7134,0.0171233
40.8397,0.015411
40.9663,0.0205479
41.0933,0.015411
41.2207,0.0119863
41.3484,0.0171233
41.4764,0.008561644
41.6047,0.0205479
41.7332,0.0222603
41.862,0.0119863
41.991,0.010274
42.1202,0.010274
42.2496,0.01369863
42.3792,0.0291096
42.5089,0.005136986
42.6387,0.010274
42.7686,0.0171233
42.8986,0.0171233
43.0286,0.008561644
43.1587,0.0119863
43.2887,0.0119863
43.4188,0.015411
43.5488,0.01369863
43.6788,0.0239726
43.8088,0.0188356
43.9387,0.015411
44.0685,0.0171233
44.1984,0.015411
44.3281,0.0119863
44.4578,0.015411
44.5875,0.015411
44.7171,0.0188356
44.8467,0.0256849
44.9762,0.0188356
45.1057,0.015411
45.2351,0.0171233
45.3645,0.01369863
45.4938,0.010274
45.6231,0.01369863
45.7523,0.008561644
45.8815,0.0205479
46.0106,0.015411
46.1396,0.01369863
46.2686,0.0188356
46.3976,0.008561644
46.5265,0.01369863
46.6553,0.0119863
46.7841,0.01369863
46.9128,0.01369863
47.0415,0.008561644
47.1701,0.0119863
47.2987,0.01369863
47.4272,0.0205479
47.5556,0.0239726
47.684,0.0599315
47.8123,0.0702055
47.9406,0.109589
48.0688,0.08390411
48.1969,0.159247
48.325,0.157534
48.453,0.0958904
48.581,0.0359589
48.7089,0.015411
48.8367,0.010274
48.9645,0.0171233
49.0922,0.010274
49.22,0.0171233
49.3476,0.01369863
49.4753,0.0222603
49.6029,0.008561644
49.7305,0.008561644
49.8581,0.015411
49.9857,0.01369863
50.1133,0.005136986
50.241,0.01369863
50.3686,0.010274
50.4962,0.0171233
50.6239,0.0119863
50.7516,0.008561644
50.8794,0.008561644
51.0072,0.0171233
51.135,0.010274
51.2629,0.0205479
51.3909,0.0119863
51.5189,0.010274
51.647,0.015411
51.7752,0.0119863
51.9034,0.008561644
52.0318,0.010274
52.1602,0.001712329
52.2888,0.0188356
52.4174,0.01369863
52.5462,0.005136986
52.6751,0.0119863
52.8041,0.0171233
52.9333,0.0205479
53.0626,0.01369863
53.192,0.0171233
53.3216,0.0222603
53.4513,0.003424658
53.5811,0.005136986
53.711,0.010274
53.841,0.0119863
53.971,0.01369863
54.101,0.015411
54.231,0.0171233
54.361,0.0222603
54.491,0.01369863
54.6209,0.005136986
54.7506,0.006849315
54.8803,0.008561644
55.0098,0.008561644
55.1392,0.006849315
55.2684,0.008561644
55.3974,0.01369863
55.5262,0.0119863
55.6547,0.015411
55.7829,0.0188356
55.9109,0.01369863
56.0385,0.01369863
56.1658,0.01369863
56.2928,0.0171233
56.4194,0.01369863
56.5457,0.0256849
56.6717,0.0462329
56.7975,0.0599315
56.923,0.133562
57.0484,0.119863
57.1735,0.148973
57.2986,0.30137
57.4235,0.333904
57.5483,0.203767
57.673,0.14726
57.7977,0.0513699
57.9225,0.0376712
58.0473,0.01369863
58.1722,0.01369863
58.2973,0.01369863
58.4227,0.0239726
58.5483,0.01369863
58.6742,0.0222603
58.8005,0.008561644
58.9273,0.0205479
59.0545,0.003424658
59.1822,0.008561644
59.3104,0.006849315
59.4389,0.003424658
59.5677,0.010274
59.6967,0.0119863
59.8258,0.0119863
59.9549,0.0119863
60.084,0.010274
60.2129,0.0119863
60.3416,0.010274
60.47,0.0119863
60.5981,0.010274
60.7259,0.01369863
60.8536,0.0119863
60.9812,0.0171233
61.1088,0.008561644
61.2366,0.0119863
61.3645,0.015411
61.4927,0.010274
61.6213,0.0188356
61.7504,0.01369863
61.8801,0.005136986
62.0103,0.010274
62.1411,0.008561644
62.2723,0.0222603
62.404,0.0119863
62.536,0.001712329
62.6684,0.015411
62.801,0.01369863
62.9338,0.0205479
63.0668,0.0873288
63.1998,0.157534
63.333,0.121575
63.466,0.0787671
63.5991,0.140411
63.732,0.184932
63.8647,0.19863
63.9972,0.191781
64.1294,0.114726
64.2612,0.0530822
64.3927,0.0222603
64.5237,0.015411
64.6542,0.008561644
64.7842,0.0119863
64.9137,0.0171233
65.0428,0.006849315
65.1714,0.010274
65.2996,0.010274
65.4273,0.01369863
65.5547,0.01369863
65.6817,0.010274
65.8083,0.010274
65.9345,0.015411
66.0289,0.015411